Frank-Hertz Experiment		
		
Vr(V)= 1.5		
Cathode Heater Current (mA) = 300		
		 
Va(V)_1	Ia(E-12 A)_1	T(c)_1
0.00	0.14	146.33
0.10	0.12	146.32
0.20	0.09	146.32
0.30	0.01	146.32
0.40	0.14	146.32
0.50	0.10	146.32
0.60	0.36	146.32
0.70	0.05	146.32
0.80	0.22	146.32
0.90	0.24	146.31
1.00	0.12	146.31
1.10	0.12	146.32
1.20	0.10	146.32
1.30	0.19	146.32
1.40	0.04	146.32
1.50	0.01	146.32
1.60	0.11	146.32
1.70	0.23	146.32
1.80	0.08	146.32
1.90	0.17	146.32
2.00	0.04	146.32
2.10	0.11	146.31
2.20	0.16	146.31
2.30	0.27	146.32
2.40	0.06	146.32
2.50	0.07	146.32
2.60	0.11	146.32
2.70	0.34	146.32
2.80	0.06	146.32
2.90	0.18	146.32
3.00	0.38	146.32
3.10	0.02	146.32
3.20	0.07	146.32
3.30	0.04	146.32
3.40	0.17	146.32
3.50	0.12	146.32
3.60	0.19	146.32
3.70	0.06	146.31
3.80	0.15	146.31
3.90	0.03	146.32
4.00	0.06	146.32
4.10	0.16	146.32
4.20	0.07	146.32
4.30	0.41	146.32
4.40	0.10	146.32
4.50	0.24	146.32
4.60	0.00	146.32
4.70	0.00	146.32
4.80	0.20	146.33
4.90	0.12	146.33
5.00	0.10	146.33
5.10	0.10	146.33
5.20	0.07	146.34
5.30	0.40	146.34
5.40	0.21	146.34
5.50	0.06	146.34
5.60	0.31	146.34
5.70	0.50	146.34
5.80	0.24	146.35
5.90	0.21	146.35
6.00	0.62	146.36
6.10	0.78	146.36
6.20	0.66	146.36
6.30	0.51	146.36
6.40	0.66	146.36
6.50	0.53	146.36
6.60	0.57	146.36
6.70	0.44	146.36
6.80	0.72	146.37
6.90	0.51	146.37
7.00	0.86	146.36
7.10	0.63	146.36
7.20	0.54	146.36
7.30	0.53	146.36
7.40	0.49	146.36
7.50	0.54	146.36
7.60	0.09	146.37
7.70	0.60	146.37
7.80	0.56	146.37
7.90	0.14	146.37
8.00	0.81	146.37
8.10	0.53	146.37
8.20	0.93	146.37
8.30	0.46	146.37
8.40	0.06	146.36
8.50	0.15	146.36
8.60	0.99	146.37
8.70	0.47	146.37
8.80	0.19	146.37
8.90	0.43	146.37
9.00	0.50	146.37
9.10	0.86	146.38
9.20	0.66	146.38
9.30	0.83	146.37
9.40	1.06	146.37
9.50	0.93	146.38
9.60	0.93	146.38
9.70	0.92	146.38
9.80	1.17	146.38
9.90	1.50	146.38
10.00	1.40	146.38
10.10	1.66	146.39
10.20	1.90	146.39
10.30	1.89	146.40
10.40	2.02	146.40
10.50	1.88	146.40
10.60	2.75	146.40
10.70	3.09	146.41
10.80	2.88	146.41
10.90	2.41	146.42
11.00	3.01	146.42
11.10	3.12	146.43
11.20	2.74	146.43
11.30	2.20	146.44
11.40	2.56	146.44
11.50	2.40	146.45
11.60	2.09	146.45
11.70	1.53	146.46
11.80	1.48	146.46
11.90	1.59	146.47
12.00	1.44	146.47
12.10	1.23	146.48
12.20	1.12	146.48
12.30	1.43	146.48
12.40	1.07	146.48
12.50	0.99	146.48
12.60	0.84	146.48
12.70	0.71	146.48
12.80	0.75	146.48
12.90	0.61	146.49
13.00	0.67	146.49
13.10	0.62	146.50
13.20	0.79	146.50
13.30	0.78	146.49
13.40	0.84	146.49
13.50	0.93	146.49
13.60	1.05	146.49
13.70	1.29	146.50
13.80	1.11	146.50
13.90	1.15	146.49
14.00	1.54	146.49
14.10	1.70	146.49
14.20	1.74	146.49
14.30	1.81	146.49
14.40	2.34	146.49
14.50	2.45	146.49
14.60	2.37	146.50
14.70	2.56	146.50
14.80	3.23	146.50
14.90	3.49	146.50
15.00	3.66	146.51
15.10	3.40	146.51
15.20	4.81	146.51
15.30	5.05	146.51
15.40	5.39	146.52
15.50	5.42	146.52
15.60	5.91	146.52
15.70	6.49	146.52
15.80	6.13	146.53
15.90	5.83	146.53
16.00	5.54	146.53
16.10	5.25	146.53
16.20	4.66	146.53
16.30	4.20	146.53
16.40	3.50	146.54
16.50	3.57	146.54
16.60	3.58	146.55
16.70	3.02	146.55
16.80	2.15	146.55
16.90	2.31	146.55
17.00	2.14	146.55
17.10	1.76	146.55
17.20	1.30	146.57
17.30	1.59	146.57
17.40	1.37	146.58
17.50	1.20	146.58
17.60	0.95	146.59
17.70	1.22	146.59
17.80	1.40	146.60
17.90	1.46	146.60
18.00	1.01	146.60
18.10	0.99	146.60
18.20	1.35	146.61
18.30	1.50	146.61
18.40	1.42	146.62
18.50	1.70	146.62
18.60	1.97	146.63
18.70	2.16	146.63
18.80	1.95	146.64
18.90	2.30	146.64
19.00	2.75	146.64
19.10	3.15	146.64
19.20	3.26	146.64
19.30	3.65	146.65
19.40	3.99	146.65
19.50	4.23	146.65
19.60	4.81	146.65
19.70	5.11	146.65
19.80	5.56	146.65
19.90	6.28	146.66
20.00	6.90	146.66
20.10	7.36	146.65
20.20	7.57	146.65
20.30	8.59	146.66
20.40	8.81	146.66
20.50	9.01	146.65
20.60	8.92	146.65
20.70	9.37	146.66
20.80	8.89	146.66
20.90	8.61	146.66
21.00	7.90	146.66
21.10	7.55	146.67
21.20	6.91	146.67
21.30	6.58	146.67
21.40	5.83	146.67
21.50	5.59	146.67
21.60	4.97	146.67
21.70	4.35	146.68
21.80	3.69	146.68
21.90	3.29	146.69
22.00	3.05	146.69
22.10	2.86	146.68
22.20	2.36	146.68
22.30	1.89	146.70
22.40	2.29	146.70
22.50	1.99	146.72
22.60	1.71	146.72
22.70	1.54	146.72
22.80	2.03	146.72
22.90	1.55	146.73
23.00	1.86	146.73
23.10	1.97	146.74
23.20	2.07	146.74
23.30	2.36	146.74
23.40	2.37	146.74
23.50	2.67	146.75
23.60	2.79	146.75
23.70	3.34	146.75
23.80	3.41	146.75
23.90	3.80	146.75
24.00	4.21	146.75
24.10	4.77	146.76
24.20	4.97	146.76
24.30	5.40	146.76
24.40	5.87	146.76
24.50	6.24	146.77
24.60	7.48	146.77
24.70	7.77	146.77
24.80	8.34	146.78
24.90	9.30	146.78
25.00	10.08	146.79
25.10	10.53	146.79
25.20	10.69	146.80
25.30	11.69	146.80
25.40	12.20	146.81
25.50	12.14	146.81
25.60	11.86	146.83
25.70	11.92	146.83
25.80	11.85	146.84
25.90	11.52	146.84
26.00	10.87	146.85
26.10	10.41	146.85
26.20	9.98	146.87
26.30	9.13	146.87
26.40	8.32	146.89
26.50	7.65	146.89
26.60	7.10	146.90
26.70	6.49	146.90
26.80	5.89	146.91
26.90	5.31	146.91
27.00	4.76	146.92
27.10	4.51	146.92
27.20	3.98	146.93
27.30	3.56	146.93
27.40	3.60	146.94
27.50	3.26	146.94
27.60	3.04	146.95
27.70	2.97	146.95
27.80	3.01	146.96
27.90	3.04	146.96
28.00	3.02	146.96
28.10	2.95	146.96
28.20	3.30	146.97
28.30	3.43	146.97
28.40	3.65	146.98
28.50	3.87	146.98
28.60	4.09	146.97
28.70	4.48	146.97
28.80	4.86	146.98
28.90	5.22	146.98
29.00	5.55	146.98
29.10	5.95	146.98
29.20	7.17	146.99
29.30	7.17	146.99
29.40	7.83	146.99
29.50	8.42	146.99
29.60	9.44	146.99
29.70	10.13	146.99
29.80	10.75	147.00
29.90	11.70	147.00
30.00	12.32	147.00
